Frequency(THz) Wavelength(um) Source Detector[0] Detector[1] Detector[2] Detector[3] Detector[4]
0.0000e+00 4.4341e+07 1.0968e-04 2.3784e-60 7.5808e-31 4.5206e-15 5.4158e-67 2.4733e-47
6.7611e-06 4.4341e+07 5.1322e-04 1.7806e-59 7.7590e-31 7.0250e-13 5.4158e-67 2.4733e-47
1.3522e-05 2.2170e+07 1.7295e-03 6.1628e-59 8.2929e-31 2.7785e-12 5.4157e-67 2.4732e-47
2.0283e-05 1.4780e+07 3.7758e-03 1.2685e-58 9.1803e-31 6.1796e-12 5.4155e-67 2.4731e-47
2.7045e-05 1.1085e+07 6.6805e-03 2.0307e-58 1.0417e-30 1.0820e-11 5.4153e-67 2.4730e-47
3.3806e-05 8.8681e+06 1.0484e-02 2.7811e-58 1.1999e-30 1.6584e-11 5.4151e-67 2.4728e-47
4.0567e-05 7.3901e+06 1.5237e-02 3.3999e-58 1.3917e-30 2.3334e-11 5.4147e-67 2.4726e-47
4.7328e-05 6.3344e+06 2.1004e-02 3.7882e-58 1.6163e-30 3.0913e-11 5.4144e-67 2.4723e-47
5.4089e-05 5.5426e+06 2.7858e-02 3.8838e-58 1.8726e-30 3.9155e-11 5.4139e-67 2.4720e-47
6.0850e-05 4.9267e+06 3.5886e-02 3.6710e-58 2.1593e-30 4.7894e-11 5.4134e-67 2.4717e-47
6.7611e-05 4.4341e+06 4.5186e-02 3.1839e-58 2.4748e-30 5.6973e-11 5.4129e-67 2.4713e-47
7.4373e-05 4.0310e+06 5.5865e-02 2.5009e-58 2.8174e-30 6.6257e-11 5.4123e-67 2.4709e-47
8.1134e-05 3.6950e+06 6.8044e-02 1.7335e-58 3.1851e-30 7.5643e-11 5.4116e-67 2.4705e-47
8.7895e-05 3.4108e+06 8.1852e-02 1.0092e-58 3.5754e-30 8.5074e-11 5.4109e-67 2.4700e-47
9.4656e-05 3.1672e+06 9.7430e-02 4.5294e-59 3.9860e-30 9.4547e-11 5.4102e-67 2.4695e-47
1.0142e-04 2.9560e+06 1.1493e-01 1.6810e-59 4.4139e-30 1.0413e-10 5.4094e-67 2.4690e-47
1.0818e-04 2.7713e+06 1.3450e-01 2.2157e-59 4.8562e-30 1.1397e-10 5.4085e-67 2.4685e-47
1.1494e-04 2.6083e+06 1.5632e-01 6.3368e-59 5.3094e-30 1.2431e-10 5.4076e-67 2.4679e-47
1.2170e-04 2.4634e+06 1.8056e-01 1.3750e-58 5.7700e-30 1.3548e-10 5.4067e-67 2.4673e-47
1.2846e-04 2.3337e+06 2.0739e-01 2.3702e-58 6.2342e-30 1.4791e-10 5.4058e-67 2.4666e-47
1.3522e-04 2.2170e+06 2.3699e-01 3.5081e-58 6.6979e-30 1.6215e-10 5.4048e-67 2.4659e-47
1.4198e-04 2.1115e+06 2.6955e-01 4.6562e-58 7.1572e-30 1.7884e-10 5.4037e-67 2.4653e-47
1.4875e-04 2.0155e+06 3.0524e-01 5.6786e-58 7.6076e-30 1.9874e-10 5.4027e-67 2.4646e-47
1.5551e-04 1.9278e+06 3.4425e-01 6.4533e-58 8.0448e-30 2.2269e-10 5.4016e-67 2.4638e-47
1.6227e-04 1.8475e+06 3.8675e-01 6.8876e-58 8.4645e-30 2.5161e-10 5.4005e-67 2.4631e-47
1.6903e-04 1.7736e+06 4.3289e-01 6.9298e-58 8.8623e-30 2.8651e-10 5.3993e-67 2.4623e-47
1.7579e-04 1.7054e+06 4.8284e-01 6.5756e-58 9.2339e-30 3.2843e-10 5.3982e-67 2.4616e-47
1.8255e-04 1.6422e+06 5.3672e-01 5.8683e-58 9.5750e-30 3.7845e-10 5.3970e-67 2.4608e-47
1.8931e-04 1.5836e+06 5.9466e-01 4.8939e-58 9.8819e-30 4.3765e-10 5.3958e-67 2.4600e-47
1.9607e-04 1.5290e+06 6.5675e-01 3.7708e-58 1.0151e-29 5.0709e-10 5.3946e-67 2.4592e-47
2.0283e-04 1.4780e+06 7.2307e-01 2.6363e-58 1.0378e-29 5.8777e-10 5.3934e-67 2.4584e-47
2.0960e-04 1.4303e+06 7.9365e-01 1.6313e-58 1.0561e-29 6.8063e-10 5.3922e-67 2.4576e-47
2.1636e-04 1.3856e+06 8.6850e-01 8.8448e-59 1.0697e-29 7.8648e-10 5.3910e-67 2.4567e-47
2.2312e-04 1.3437e+06 9.4761e-01 4.9818e-59 1.0784e-29 9.0601e-10 5.3897e-67 2.4559e-47
2.2988e-04 1.3041e+06 1.0309e+00 5.3713e-59 1.0819e-29 1.0397e-09 5.3885e-67 2.4551e-47
2.3664e-04 1.2669e+06 1.1183e+00 1.0211e-58 1.0803e-29 1.1880e-09 5.3873e-67 2.4543e-47
2.4340e-04 1.2317e+06 1.2096e+00 1.9219e-58 1.0735e-29 1.3509e-09 5.3861e-67 2.4535e-47
2.5016e-04 1.1984e+06 1.3046e+00 3.1662e-58 1.0614e-29 1.5284e-09 5.3849e-67 2.4527e-47
2.5692e-04 1.1669e+06 1.4032e+00 4.6412e-58 1.0441e-29 1.7200e-09 5.3838e-67 2.4519e-47
2.6368e-04 1.1369e+06 1.5049e+00 6.2063e-58 1.0218e-29 1.9254e-09 5.3826e-67 2.4512e-47
2.7045e-04 1.1085e+06 1.6096e+00 7.7066e-58 9.9470e-30 2.1436e-09 5.3815e-67 2.4504e-47
2.7721e-04 1.0815e+06 1.7167e+00 8.9883e-58 9.6299e-30 2.3736e-09 5.3803e-67 2.4497e-47
2.8397e-04 1.0557e+06 1.8258e+00 9.9148e-58 9.2702e-30 2.6141e-09 5.3793e-67 2.4490e-47
2.9073e-04 1.0312e+06 1.9366e+00 1.0382e-57 8.8714e-30 2.8638e-09 5.3782e-67 2.4482e-47
2.9749e-04 1.0077e+06 2.0483e+00 1.0329e-57 8.4378e-30 3.1208e-09 5.3772e-67 2.4476e-47
3.0425e-04 9.8534e+05 2.1606e+00 9.7474e-58 7.9739e-30 3.3834e-09 5.3762e-67 2.4469e-47
3.1101e-04 9.6392e+05 2.2727e+00 8.6856e-58 7.4848e-30 3.6497e-09 5.3752e-67 2.4463e-47
3.1777e-04 9.4341e+05 2.3841e+00 7.2441e-58 6.9759e-30 3.9175e-09 5.3743e-67 2.4456e-47
3.2453e-04 9.2376e+05 2.4941e+00 5.5695e-58 6.4528e-30 4.1848e-09 5.3734e-67 2.4451e-47
3.3130e-04 9.0491e+05 2.6021e+00 3.8413e-58 5.9214e-30 4.4493e-09 5.3726e-67 2.4445e-47
3.3806e-04 8.8681e+05 2.7072e+00 2.2556e-58 5.3876e-30 4.7089e-09 5.3718e-67 2.4440e-47
3.4482e-04 8.6942e+05 2.8090e+00 1.0055e-58 4.8577e-30 4.9614e-09 5.3710e-67 2.4435e-47
3.5158e-04 8.5270e+05 2.9065e+00 2.6186e-59 4.3375e-30 5.2047e-09 5.3703e-67 2.4430e-47
3.5834e-04 8.3661e+05 2.9993e+00 1.5522e-59 3.8331e-30 5.4368e-09 5.3697e-67 2.4426e-47
3.6510e-04 8.2112e+05 3.0865e+00 7.6063e-59 3.3503e-30 5.6556e-09 5.3691e-67 2.4422e-47
3.7186e-04 8.0619e+05 3.1677e+00 2.0880e-58 2.8946e-30 5.8594e-09 5.3685e-67 2.4418e-47
3.7862e-04 7.9179e+05 3.2420e+00 4.0784e-58 2.4715e-30 6.0464e-09 5.3680e-67 2.4415e-47
3.8539e-04 7.7790e+05 3.3091e+00 6.6072e-58 2.0856e-30 6.2152e-09 5.3676e-67 2.4412e-47
3.9215e-04 7.6449e+05 3.3684e+00 9.4935e-58 1.7416e-30 6.3643e-09 5.3672e-67 2.4409e-47
3.9891e-04 7.5153e+05 3.4193e+00 1.2516e-57 1.4435e-30 6.4925e-09 5.3669e-67 2.4407e-47
4.0567e-04 7.3901e+05 3.4616e+00 1.5434e-57 1.1946e-30 6.5989e-09 5.3666e-67 2.4405e-47
4.1243e-04 7.2689e+05 3.4948e+00 1.8006e-57 9.9803e-31 6.6825e-09 5.3664e-67 2.4404e-47
4.1919e-04 7.1517e+05 3.5188e+00 2.0018e-57 8.5593e-31 6.7426e-09 5.3663e-67 2.4403e-47
4.2595e-04 7.0382e+05 3.5332e+00 2.1298e-57 7.7000e-31 6.7789e-09 5.3662e-67 2.4402e-47
4.3271e-04 6.9282e+05 3.5380e+00 2.1738e-57 7.4125e-31 6.7911e-09 5.3661e-67 2.4402e-47
